113	ThroughSeriesAnalysis4.0DATA	ngallego	29/05/2025	19:18:41	Number Of Statistical Points : 113	Number Of Statistical Regions : 22	XY Calibration : X*4.0 (um) : Y*4.0 (um)	Threshold Max : OFF	Threshold Min : -3.40282346638529E38	
Region			57		58		59		60		61		62		63		64		65		66		67		68		69		70		71		72		73		74		75		76		77		78
Description			_Background Rectangle (276,188 : 284,195) Colour(255) Label(57)		_Background Rectangle (269,177 : 275,183) Colour(255) Label(58)		_Background Rectangle (298,154 : 304,162) Colour(255) Label(59)		_Background Rectangle (301,163 : 309,170) Colour(255) Label(60)		_Background Rectangle (303,127 : 310,132) Colour(255) Label(61)		_Background Rectangle (324,141 : 331,146) Colour(255) Label(62)		_Background Rectangle (298,240 : 303,246) Colour(255) Label(63)		_Background Rectangle (307,236 : 313,243) Colour(255) Label(64)		_Background Rectangle (304,251 : 313,257) Colour(255) Label(65)		_Background Rectangle (228,200 : 240,209) Colour(255) Label(66)		_Background Rectangle (213,124 : 222,131) Colour(255) Label(67)		_Background Rectangle (176,240 : 183,247) Colour(255) Label(68)		_Background Rectangle (197,234 : 205,242) Colour(255) Label(69)		_Background Rectangle (231,113 : 242,123) Colour(255) Label(70)		_Background Rectangle (208,97 : 217,104) Colour(255) Label(71)		_Background Rectangle (106,127 : 118,133) Colour(255) Label(72)		_Background Rectangle (55,125 : 67,135) Colour(255) Label(73)		_Background Rectangle (181,106 : 189,115) Colour(255) Label(74)		_Background Rectangle (184,97 : 190,103) Colour(255) Label(75)		_Background Rectangle (297,204 : 305,209) Colour(255) Label(76)		_Background Rectangle (276,117 : 282,125) Colour(255) Label(77)		_Background Rectangle (277,95 : 284,100) Colour(255) Label(78)
Area (um*um)			896.0		576.0		768.0		896.0		560.0		560.0		480.0		672.0		864.0		1728.0		1008.0		784.0		1024.0		1760.0		1008.0		1152.0		1920.0		1152.0		576.0		640.0		768.0		560.0
Frame	Time (ms)		490/10(466.1) Mean Intensity 		490/10(466.1) Mean Intensity 		490/10(466.1) Mean Intensity 		490/10(466.1) Mean Intensity 		490/10(466.1) Mean Intensity 		490/10(466.1) Mean Intensity 		490/10(466.1) Mean Intensity 		490/10(466.1) Mean Intensity 		490/10(466.1) Mean Intensity 		490/10(466.1) Mean Intensity 		490/10(466.1) Mean Intensity 		490/10(466.1) Mean Intensity 		490/10(466.1) Mean Intensity 		490/10(466.1) Mean Intensity 		490/10(466.1) Mean Intensity 		490/10(466.1) Mean Intensity 		490/10(466.1) Mean Intensity 		490/10(466.1) Mean Intensity 		490/10(466.1) Mean Intensity 		490/10(466.1) Mean Intensity 		490/10(466.1) Mean Intensity 		490/10(466.1) Mean Intensity 		
0	0		213.9464		208.8333		179.9375		186.6607		145.4286		147.5429		178.2333		169.9524		172.3333		170.3056		218.3175		132.3265		147.8594		192.7		168.254		158.5972		120.65		173.9583		160.2778		216.725		160.4375		124.1714		
1	10754		212.3214		206.0278		177.875		183.6964		145.3143		146.3143		175.6333		168.0238		173.5		169.3426		215.3492		132.4694		147.3125		189.3		167.4286		156.3611		120.4917		171.5278		158.5		213.9		159.8333		123.6857		
2	20753		210.7679		206.4167		179.7292		183.6607		143.2		145.0571		177.3333		170.8333		173.2037		171.0093		216.9682		130.4286		147.5		189.5909		166.9841		155.9167		125.5167		173.0972		158.3889		211.425		159.7917		120.4857		
3	30754		211.6964		204.5556		180.1042		183.5179		142.0		144.1429		176.9667		172.2857		171.5185		169.1204		218.6508		131.5306		147.0		191.9909		168.2381		158.1944		119.45		172.1528		158.9722		214.775		160.9792		122.4857		
4	40753		212.8214		207.3056		179.6042		182.3214		144.6286		144.6857		176.1		169.0		173.0		170.0093		215.7302		130.102		147.2344		192.1091		168.7143		156.625		121.325		172.5694		158.7222		213.3		162.2292		123.5143		
5	50752		207.625		203.1389		176.1667		181.5536		141.5714		143.2571		174.2667		167.7143		169.6852		169.037		211.9365		131.898		144.9375		186.1182		165.3333		153.7778		119.4917		169.0		155.7778		209.8		156.8333		122.1429		
6	60753		209.7321		202.9167		178.6458		181.4821		143.8		143.4571		178.3		168.3571		171.3704		169.0741		216.8095		131.6327		147.0625		190.4182		166.381		155.4028		119.5		173.1528		160.1389		214.9		160.2708		122.1429		
7	70752		214.5714		208.3333		181.6042		186.0893		146.7714		145.1714		177.2667		170.1667		176.1296		170.1759		219.6349		130.8163		147.7813		191.4		168.9682		159.0		119.9083		174.125		161.6944		218.125		160.8542		123.5143		
8	80832		215.25		207.8333		179.8125		185.75		143.8857		148.2571		178.0333		171.381		175.2407		171.2222		219.4286		130.2857		146.3906		192.4636		169.4762		158.4167		120.9417		174.3194		160.5278		214.15		161.4375		124.1429		
9	90767		213.5179		205.75		181.0625		183.5893		142.4571		146.1143		176.2667		171.1429		173.5926		171.0093		217.254		131.4286		147.4531		192.0546		169.3651		157.0694		120.6		172.8472		158.5833		215.1		160.7917		123.6857		
10	100766		214.0357		209.1111		182.5		186.5179		147.8286		148.7714		181.2333		171.5952		174.1111		172.9167		221.2698		133.0408		148.5469		193.6818		170.8571		160.7083		122.1167		174.6667		162.8333		217.0		162.5833		125.7429		
11	110766		216.25		212.0556		184.8333		186.8393		146.2286		151.2		178.4		174.0714		177.0926		173.6296		219.5556		134.4082		149.0625		193.7091		171.746		160.1389		122.5333		179.0417		161.5		218.85		162.6667		125.2286		
12	120767		214.9464		209.4444		182.7292		185.5536		145.9429		146.8571		178.1		170.9524		174.9074		171.0278		217.7619		133.6939		148.2031		192.0636		171.7937		159.1111		121.825		176.7778		162.5556		215.875		162.2292		125.1429		
13	159294		209.1964		203.5278		179.1458		182.1071		143.2571		146.8857		175.4		167.4762		172.3889		169.1667		215.127		132.9592		146.0		189.9364		165.9841		156.3194		119.1667		171.25		159.0278		213.725		159.2083		120.8857		
14	169281		209.1786		201.1389		175.4583		179.5179		140.6857		145.1714		174.0		164.5238		169.0185		167.537		213.0318		129.7551		147.0469		187.9182		165.6508		155.125		118.7667		170.7083		157.1667		211.025		157.6667		121.9429		
15	179279		205.1786		197.0		175.6667		178.2679		141.8571		142.2286		171.6333		163.1905		168.537		166.463		211.8571		126.898		143.3906		185.7182		163.4603		153.1806		118.325		168.5417		157.6667		208.55		156.3542		119.7143		
16	189279		205.5179		201.6944		175.5833		179.3214		142.8286		143.5429		170.6333		165.2619		167.8148		166.4259		211.1429		127.449		142.3594		185.8364		163.1905		153.9167		118.0167		170.6667		154.5278		207.05		158.2292		120.7143		
17	199279		209.9821		204.0556		179.2917		183.125		139.7714		145.0286		175.8667		169.2619		173.0185		169.5		217.0159		129.7347		147.9688		189.8818		166.8413		156.6944		118.8667		171.7361		158.4722		214.575		159.0		121.8571		
18	209279		208.6786		205.4722		176.25		181.7143		143.9714		142.8		174.0333		167.4524		171.8704		168.7593		214.7937		130.5306		145.8125		187.6091		166.746		157.4722		119.025		172.5556		157.3056		212.85		158.8542		123.4286		
19	219278		207.75		202.7778		176.25		181.0536		142.2286		146.0857		173.1		166.881		170.7593		167.1296		211.0476		130.3469		144.625		186.3636		165.9841		153.4444		117.2917		169.6667		155.8333		211.725		157.9792		121.5429		
20	229278		210.9821		202.6944		179.7083		182.75		143.8286		145.4571		172.7667		168.4286		172.8704		170.6574		215.1746		130.3878		147.0469		190.2727		167.7619		155.625		119.5167		172.9167		161.9444		212.825		157.7292		122.0286		
21	239279		211.3929		203.9722		179.3958		184.125		142.5714		145.0857		175.8667		170.0		171.6296		169.8333		215.6349		131.8571		148.0469		190.8636		166.9048		156.1528		119.675		174.8611		160.1389		215.425		160.0625		123.4286		
22	249277		211.9286		204.7222		180.75		184.8214		144.5143		147.2857		178.4667		169.4524		171.463		170.3889		216.9206		131.5306		147.0156		191.7727		168.4921		157.2083		119.2917		173.7778		160.5		216.8		160.6042		123.9143		
23	259277		206.25		202.75		177.25		181.875		144.6		144.2		171.2333		167.3333		170.9444		168.2963		214.5556		129.6531		144.875		187.5091		166.4444		155.0833		118.55		171.7778		160.3333		212.85		157.125		121.7429		
24	269278		207.0893		200.1111		176.1667		179.2679		142.1143		143.8		174.3333		166.119		170.037		166.787		214.4444		129.9388		145.8594		188.0		164.6508		153.5278		119.2083		171.6389		156.5556		210.025		156.5208		121.6286		
25	279276		208.4643		204.9444		179.375		184.1964		143.6572		145.7143		175.5		169.0		174.0185		170.7778		217.619		131.0		148.2344		190.2545		167.0		157.6528		119.95		172.8333		158.1667		216.825		160.9583		123.5429		
26	289276		208.9464		201.8889		177.6667		184.1786		142.8286		143.7714		173.8667		166.8571		170.4259		168.9352		214.0635		131.0408		146.4688		189.5364		165.4603		156.0833		120.1833		171.7917		157.2778		210.65		159.3125		121.6286		
27	299277		214.4821		209.8611		181.7292		184.7857		144.8857		147.7714		179.7		171.7619		175.463		172.537		217.619		133.6327		149.3125		192.6091		169.0794		157.6944		120.2917		175.5139		162.0278		219.05		162.75		124.3429		
28	309277		212.3393		206.4167		178.8333		182.5179		145.3714		145.8857		177.2333		170.8095		173.2778		169.5		217.4921		131.8163		147.3125		189.0455		168.4127		156.0		120.8		172.9028		159.8889		215.325		160.3958		122.1429		
29	319275		212.5893		206.0		181.8542		183.5536		144.8857		147.1714		178.4333		169.9048		174.9815		170.1944		216.5397		130.9184		149.3281		192.2727		169.381		157.5556		120.2917		173.5972		162.1111		217.7		161.2708		123.9429		
30	329275		209.7857		201.6389		178.25		182.3571		143.2571		143.7429		174.6667		169.4048		171.5741		169.0926		215.1746		132.2449		146.9688		188.9091		165.3333		154.7639		119.4333		173.1667		159.3611		212.325		158.8958		121.1429		
31	339276		213.0536		205.6389		179.625		184.0357		144.6857		145.6572		180.6667		170.2381		172.7778		170.3981		216.0635		131.7347		148.3594		191.8364		168.0794		159.8056		121.6167		175.4167		157.6667		215.35		159.25		122.3714		
32	349274		209.875		205.4167		180.5417		184.375		143.2857		144.2286		176.1		170.0952		174.3889		170.0		217.9682		131.3878		147.3125		189.3091		167.4127		157.3194		120.5083		174.1111		159.0556		214.325		160.2708		122.8571		
33	359274		214.2321		207.6389		181.75		184.6786		144.6286		146.8286		179.7333		170.881		175.1296		171.0093		219.127		132.8775		149.4063		193.2182		169.4444		158.2222		120.7083		174.2917		160.75		218.075		162.8542		125.5143		
34	369275		209.0893		205.4722		176.625		181.875		143.0571		146.0286		172.4667		169.5714		171.2778		169.7963		212.3651		130.551		145.4844		189.8364		165.6032		155.5556		119.8667		172.9167		159.6389		213.875		158.9583		121.5429		
35	379273		212.5714		207.5556		182.0625		185.9821		143.6572		147.3428		179.8		171.5476		173.0185		171.4815		216.619		132.1837		149.2031		192.6636		170.127		159.625		120.675		174.6667		162.25		215.825		160.9792		125.4		
36	389273		213.6429		209.9444		180.7083		184.7679		144.6857		147.7429		176.1333		172.0952		174.4259		171.0278		218.5556		133.1429		149.7656		192.3364		167.8889		157.9583		121.4417		175.0417		161.4444		217.0		161.5417		124.0		
37	399274		213.1964		207.3056		181.4167		184.5714		142.6		146.0286		178.5		169.2619		172.7963		170.5278		216.1746		131.7959		148.0156		192.0		168.746		157.9167		119.6917		175.625		161.6944		215.675		162.4375		124.9429		
38	409273		213.5		208.1389		181.875		183.7857		144.4286		147.6857		176.9		171.5952		176.1296		172.7315		218.4444		131.7755		148.25		191.8818		170.0794		158.375		121.8917		175.1389		162.25		218.775		162.2917		123.4286		
39	419272		213.7679		206.3333		183.2292		185.75		143.0857		145.6286		177.0667		170.1667		173.6296		169.9352		217.5556		131.8163		148.0469		192.4091		169.5397		158.3056		121.4667		173.8472		160.0		214.025		160.9792		122.3143		
40	429272		216.4643		208.0278		183.625		185.9821		145.2286		148.8571		177.8667		172.619		176.9444		172.8426		221.0476		131.9592		150.5781		193.4727		171.4286		158.4444		121.6333		177.2778		163.8889		220.075		163.2083		126.4571		
41	439273		208.7321		208.0278		180.0208		183.3036		143.5714		146.1143		175.2333		167.6429		173.3333		170.3333		216.5556		130.5714		147.3438		190.6364		169.0952		158.3472		121.2417		173.9028		159.8889		216.45		161.3958		124.3714		
42	449271		209.3036		204.7222		180.8333		182.8393		143.7143		145.1429		176.7667		169.2143		172.7593		170.3796		213.0952		133.7755		147.2031		190.1818		167.3651		156.7222		121.1417		173.0		159.0278		215.175		160.2917		122.9714		
43	459271		211.75		206.5278		182.0625		183.625		146.3143		146.4571		176.7667		169.0		173.4259		171.7778		218.4127		134.2041		148.3906		191.4364		167.127		156.7083		120.3667		173.3611		159.6389		213.3		162.4792		121.6857		
44	469272		209.9821		206.1667		181.5417		185.3571		143.6572		147.7143		175.6667		171.3333		175.2407		171.0185		217.0794		131.3878		148.3281		191.5727		168.6825		158.2778		121.075		173.9583		161.4167		215.8		161.5208		123.0571		
45	479270		211.4286		209.0		181.1458		184.7857		146.0286		148.8286		176.0667		171.6905		175.1296		170.8426		219.0159		133.3265		149.6563		193.0909		168.7619		159.1111		122.2417		175.2639		162.3333		219.675		162.3333		125.0571		
46	519951		211.375		205.5833		178.9375		184.7143		144.4286		144.0286		174.6333		167.8095		172.8889		170.8333		218.1746		131.2653		147.2031		190.4091		167.8889		156.9444		120.3083		172.9444		158.6667		217.075		160.3542		122.6286		
47	529909		208.5		206.3611		178.3125		181.0		144.8286		144.0857		174.3333		168.3571		172.4259		168.287		215.4286		132.3469		148.0156		189.3818		167.4762		154.9583		120.45		172.6667		158.3611		214.7		159.0833		123.6286		
48	539909		212.7679		205.3889		179.0		183.5179		144.2857		147.2		174.6667		171.2143		173.2037		169.8981		219.2063		132.0204		147.3125		190.9273		170.4762		157.9444		120.1583		175.4306		161.4444		216.675		159.4375		123.2		
49	549909		214.4286		205.5278		180.3958		184.0714		144.8571		145.6572		176.1667		170.0714		175.5556		170.5		218.3016		132.7347		150.75		191.5818		168.5714		159.8056		122.1583		175.6111		163.0		218.175		162.5833		123.1429		
50	559909		215.7143		208.8056		179.8958		186.9821		147.0		146.4857		179.6		171.3333		174.9444		173.0278		220.9365		133.2041		149.125		193.8364		172.2381		159.7361		121.9167		176.7917		161.1111		219.65		161.5625		125.0		
51	569908		217.0179		207.8333		183.4792		186.125		148.0857		149.4857		178.8333		172.8333		179.0		173.2778		221.2222		135.0816		151.4688		196.6545		171.6508		161.3056		122.125		176.3333		163.5556		220.7		162.25		126.6		
52	579908		213.3214		209.5		181.8333		184.7143		145.4857		147.9429		178.6		171.6429		175.1667		171.8981		220.4762		134.1225		150.1406		192.9182		170.746		160.4444		121.6		174.625		162.4444		218.225		161.8958		123.2		
53	589909		206.7679		204.6389		178.1667		179.6607		141.2		145.1429		175.5		167.8333		172.3148		166.713		215.2381		132.8367		146.4531		188.0091		165.3333		155.8889		120.2083		171.1806		158.1944		209.625		158.1458		122.5429		
54	599907		211.4286		203.1111		178.8958		182.125		145.3428		145.3428		177.4667		170.3095		173.5556		170.4537		216.6984		132.5306		148.1875		190.1818		167.3175		156.8194		120.4917		173.9028		162.2778		215.925		158.25		122.2		
55	609907		212.8036		208.5556		181.375		183.1429		145.8571		147.4571		177.9333		170.4524		173.9259		171.0926		218.7143		131.9796		151.4219		192.7		169.3016		158.0833		120.7917		175.7917		158.75		217.825		159.5		124.1429		
56	619908		212.5		208.3333		181.1458		185.0536		144.1714		146.2		175.4333		169.3571		172.6667		170.8519		217.381		132.9796		150.0781		191.0182		169.2857		157.3194		121.6		173.875		160.9167		216.975		161.5417		123.4857		
57	629906		209.8393		204.8056		178.6667		182.3393		143.2286		147.1143		173.7333		169.881		172.037		170.4074		218.619		132.7347		148.6563		189.5455		167.254		156.6111		119.225		173.8611		161.0278		214.1		160.1458		122.4571		
58	639906		213.0		208.5833		179.6667		185.0536		144.5714		147.5714		176.7333		172.381		174.6296		170.8333		219.3016		134.3878		150.7344		192.3636		170.0476		157.3056		120.5583		175.4722		161.0278		217.325		160.2292		123.4857		
59	649906		206.375		202.4722		177.2083		180.5714		140.7429		145.0286		173.7		168.0476		171.8889		168.2963		214.5873		130.6327		148.2656		188.8091		165.4444		155.5417		118.3		174.2083		155.9444		210.575		158.1042		120.5143		
60	659906		213.75		207.9167		181.0		185.5536		145.2286		148.7143		178.4		170.7857		174.9444		171.0926		218.9841		134.1429		149.6875		191.6727		169.0794		158.5556		121.1583		175.875		160.3333		217.775		158.5833		123.4571		
61	669905		211.9821		208.9167		181.9375		184.3214		145.2286		147.1429		177.4667		169.6667		174.3148		170.8796		217.2381		131.449		150.7344		192.2818		167.8095		158.8889		121.3333		176.0		161.1667		216.3		159.5417		124.4		
62	679905		211.0714		207.3889		178.8958		181.7857		142.8286		147.5143		175.7667		170.381		171.8148		170.3519		217.5873		132.0408		148.7656		190.7818		166.9841		157.1944		120.1667		174.0278		158.0556		212.1		158.5417		122.4286		
63	689906		208.1071		205.7222		177.125		180.5357		143.0		145.5429		174.7		166.881		171.3704		168.5926		214.746		130.4286		147.2344		189.2545		166.2381		156.1806		118.725		172.6111		155.9167		209.6		158.7083		121.6571		
64	699904		213.0357		208.0556		181.4375		184.1786		144.0286		148.7429		178.2667		172.2619		174.5741		172.9352		219.5714		134.4694		150.875		191.7727		168.1587		159.2639		120.6417		175.75		159.4444		217.4		159.6042		123.7429		
65	709904		213.4107		210.7222		182.6875		186.9821		143.1714		148.1429		178.0333		172.8095		176.1667		172.2407		219.0		134.449		150.5625		195.5909		172.1587		159.7639		122.2083		176.2778		163.1111		220.825		162.9375		125.7714		
66	719905		208.2321		204.5278		179.875		180.9286		143.3428		144.4857		174.7333		168.7857		172.6296		168.5741		216.5714		131.102		148.2344		188.7364		167.1429		155.6528		118.6083		171.5556		157.2222		213.775		158.6875		122.8		
67	729903		212.7679		206.5833		178.6667		182.7857		144.6857		146.8286		178.0		169.8333		175.6111		170.6019		219.2222		132.3469		148.8438		192.1818		169.4286		159.0694		119.8417		174.9583		160.2222		217.225		159.5417		123.0		
68	739903		211.7857		205.1667		179.7917		184.5893		144.2		145.4857		174.5		170.1905		171.5556		171.0556		217.0635		132.3878		148.8125		191.5636		167.1905		156.9306		119.8917		174.6389		158.6111		214.925		160.3958		125.1714		
69	749903		211.1429		205.75		180.125		182.6607		143.6286		145.5714		175.8667		169.881		174.2963		169.6667		217.4921		131.6531		148.1094		190.6364		167.8889		157.6111		120.1667		173.9028		161.0556		215.525		159.3333		124.6		
70	759903		208.375		202.7778		177.8125		178.5		143.8286		143.9429		173.6667		167.4048		170.3889		170.7315		213.7619		130.1225		146.1719		187.6		165.873		155.5972		118.4917		171.0417		156.6111		211.0		157.375		122.1143		
71	769902		212.2857		206.8333		180.0208		184.4643		145.6286		148.8286		177.1333		170.4048		174.7407		171.0926		220.9524		132.0612		149.0156		193.1909		170.127		157.4028		120.5		174.8333		160.5833		216.95		162.125		122.9143		
72	779902		213.4464		207.5833		180.3542		185.4464		143.5429		145.9714		175.5		169.8571		174.0185		171.4167		218.8571		134.551		148.5313		192.3818		168.9206		157.8889		120.975		173.3194		162.0		215.525		162.375		123.3429		
73	831428		213.4464		209.3056		181.4375		184.7857		146.4286		148.7429		173.4667		175.5238		176.3519		171.6944		220.7302		135.4082		151.5156		193.8455		172.127		160.8333		120.975		176.2917		161.6111		220.6		157.9792		125.1714		
74	841417		214.1607		213.0278		181.8333		184.5536		143.9143		150.0857		177.5333		174.9524		176.4074		174.1019		220.619		134.8775		153.3125		194.0818		173.0952		160.6389		119.95		178.0		162.5278		220.125		158.375		123.2286		
75	851415		206.4821		202.9722		176.6667		178.3929		141.7714		141.6857		169.3667		166.3571		171.0185		166.3333		211.0476		130.1633		144.875		185.4		164.9365		154.6944		118.175		171.4861		155.8333		207.875		156.625		121.6857		
76	861415		206.2143		202.4444		177.6875		178.6964		141.7429		145.3428		172.3		167.8095		169.7778		167.7593		212.0		131.5102		147.75		186.0364		165.6667		157.4306		118.8333		171.2639		155.6667		208.525		156.3958		121.0		
77	871416		211.9286		207.9167		180.8958		186.125		144.2571		148.3714		174.5333		171.4524		174.963		171.9815		217.3333		133.6122		150.6406		191.9727		170.2381		160.5278		120.2917		175.8333		160.3056		217.625		160.3958		125.2571		
78	881415		211.5179		207.9167		180.6458		184.8929		145.2286		148.1429		178.1		170.4048		175.2222		170.213		218.127		132.1225		150.2813		192.3		170.0159		159.0833		120.1583		176.0972		160.0556		218.5		158.2292		124.4		
79	891414		210.3929		205.3611		177.8958		181.5536		142.1143		148.0		171.5		169.5952		173.2037		169.1574		217.2381		132.6531		149.0		189.2182		169.9524		158.6111		119.7		173.9444		158.5		213.175		158.125		124.2286		
80	901414		213.1071		207.3889		180.5833		184.5357		144.5429		147.1429		175.9		171.9524		175.3333		170.7222		217.381		134.3265		149.3438		191.4818		172.254		159.8056		120.1083		177.3194		159.1111		216.95		157.1875		124.0857		
81	911415		206.5893		204.5278		179.0417		183.6786		143.8		144.8571		170.0333		167.2381		171.1296		169.4259		215.6667		131.8775		148.5156		188.8818		167.4444		157.9028		118.8667		172.75		159.0556		211.1		157.8125		124.2857		
82	921413		201.5179		201.0278		172.4375		178.2143		138.8571		144.0286		167.6333		164.5714		169.3704		165.3426		211.1429		129.2041		145.125		183.9454		165.873		154.6667		116.9667		167.9583		153.9444		206.9		153.9583		120.3429		
83	931413		209.8036		206.6667		180.1875		183.125		142.4857		148.5429		175.8333		172.8095		173.5185		168.5833		216.619		133.6122		148.0313		191.1545		170.9682		157.9167		118.8167		174.6944		159.3056		215.775		158.9375		124.0571		
84	941414		209.3036		207.1389		178.9792		183.7857		143.5429		147.4		173.7667		168.5714		172.3519		169.2407		215.1429		131.6327		148.3281		190.0909		168.6349		158.0278		119.6833		173.875		157.6389		214.775		158.25		121.6286		
85	951412		205.25		205.1944		176.8333		180.1071		142.4286		144.3428		171.5667		168.1905		170.7407		166.8241		212.7937		131.8775		146.75		187.4909		167.0318		157.75		118.6333		172.0139		156.4722		212.0		157.0417		122.0571		
86	961412		207.2143		207.4167		176.7917		182.0		143.2286		143.7429		171.1		168.4048		172.1296		167.6944		213.8889		128.7347		147.1719		188.4273		166.5714		158.5556		119.1083		174.4722		157.2222		212.125		156.3333		124.6857		
87	971413		207.1429		206.3611		177.6875		181.4107		144.0286		144.6572		170.1333		167.6429		170.4259		168.0185		213.8889		132.2449		147.1875		188.0909		168.0635		156.3333		120.1167		173.4028		158.5833		210.725		157.5		121.4571		
88	981411		205.0536		203.3056		175.9583		180.25		140.5429		142.6857		172.0		167.1667		171.4444		166.9352		212.1905		131.551		147.3125		185.7455		165.4286		156.8889		117.7917		170.7778		155.1389		208.4		155.2292		121.3143		
89	991411		205.875		204.7222		180.0		182.2143		142.2571		142.8857		171.3		167.2143		171.6667		167.8519		214.7143		131.3673		146.4688		188.4818		166.4286		157.5833		119.725		171.7083		159.25		211.675		156.375		124.3143		
90	1001411		213.7857		209.0556		183.3333		186.7321		145.9143		149.7143		176.7667		175.119		176.9074		173.0926		219.1429		134.3061		151.0156		193.6364		173.7619		161.5		121.4417		177.0139		163.8333		218.5		160.3542		125.4857		
91	1011412		212.0536		210.0556		179.3958		184.2143		144.9714		147.2571		174.6333		173.2857		174.3704		171.8981		219.3016		131.2449		148.6406		192.2545		170.6667		159.75		120.9833		174.9028		161.9444		219.35		158.6667		124.9714		
92	1021411		207.2857		205.1111		178.9792		182.625		145.6572		146.9143		173.2667		169.7619		171.8519		169.0463		215.5556		131.6735		147.9063		189.1636		169.8413		157.6667		119.425		172.5417		159.75		212.175		156.9583		124.2		
93	1031410		209.4107		207.1667		180.3542		182.7857		143.7429		146.1143		172.8667		173.1667		172.1667		169.4259		215.619		132.1429		148.3438		190.7182		171.1429		157.8611		120.05		173.8194		158.7778		213.325		157.7083		124.2571		
94	1041411		208.375		207.4167		180.4792		182.8929		143.1429		146.9714		172.1667		170.2619		173.7963		169.4907		217.7302		132.5918		148.0625		190.0455		170.2381		157.6806		119.5583		175.7639		160.8056		213.725		157.7917		124.7429		
95	1051409		210.1607		206.6111		179.7292		182.9107		142.6		148.8		172.8		170.9762		173.2407		170.1111		216.8254		131.5918		150.3438		190.8455		169.2857		156.875		119.8083		175.6528		160.8889		212.2		158.3542		122.9714		
96	1061409		204.9286		201.3611		173.8958		177.1786		141.8571		143.5429		170.1667		165.6667		170.3148		165.9722		210.6032		132.102		145.6094		185.3		166.2698		155.0139		117.875		170.4861		155.0278		207.625		152.5		120.9143		
97	1107304		4095.0		4095.0		4095.0		4095.0		4095.0		4095.0		4095.0		4095.0		4095.0		4095.0		4095.0		4095.0		4095.0		4095.0		4095.0		4095.0		4095.0		4095.0		4095.0		4095.0		4095.0		4095.0		
98	1117298		235.7857		234.3889		193.375		200.625		154.0857		152.6286		195.6		197.4286		195.0741		189.5833		245.8413		156.7143		172.0781		213.3		185.2222		168.6111		135.225		199.5278		174.5833		233.4		166.3333		135.2		
99	1127299		235.9643		233.3333		190.7917		199.5357		154.6		148.6857		195.9333		196.8095		194.5741		189.463		246.0318		154.9592		172.0156		213.8273		182.2381		169.5833		136.225		201.3056		173.0		228.45		165.1458		131.2286		
100	1137298		241.3214		238.8333		195.5833		202.2679		158.0857		152.4571		201.0333		204.2381		198.7222		195.2778		247.7619		159.8571		178.3906		219.9091		184.9206		173.2361		137.4417		204.2083		176.1389		235.125		168.125		135.2286		
101	1147297		233.9286		231.3056		189.4583		198.6071		154.4857		151.2857		199.2333		199.1429		192.7222		191.0		244.3492		156.0204		174.8906		216.3182		182.6984		169.1806		136.4417		203.1667		174.4167		226.55		164.0417		133.2857		
102	1157298		243.5714		239.7222		196.9167		205.1786		156.2286		153.3143		205.0333		207.4286		198.9444		195.9259		250.6508		159.9388		179.5469		221.8455		189.8571		174.5694		139.0083		207.0417		178.1389		237.125		169.2917		136.1714		
103	1167296		242.8393		239.8611		198.1875		203.25		155.7714		152.1143		204.7		205.119		198.9444		195.3611		248.3016		161.102		181.1875		221.1182		188.2381		175.25		138.5583		205.9028		177.0556		236.175		166.0208		136.7429		
104	1177296		237.8036		235.1667		195.125		199.3214		154.7714		149.6286		199.9667		200.3333		194.5		191.9259		246.2857		158.2245		177.0625		217.3273		183.1587		170.2083		136.725		203.3333		173.0833		227.7		165.2083		134.5714		
105	1187296		239.6429		235.4444		195.9792		202.9286		155.7143		151.3428		203.5667		203.5		195.6296		192.287		247.127		158.0408		180.3125		219.5		184.8571		172.5556		137.7333		204.625		177.25		229.625		166.8542		132.6857		
106	1197296		237.3393		237.2222		194.625		202.6607		154.5143		149.2286		199.5333		200.8095		196.4444		193.0648		246.2698		155.9796		180.0		220.6273		185.3175		171.1806		136.6333		205.0		176.5278		231.35		167.625		132.8857		
107	1207295		248.0536		241.4444		198.3958		204.5536		156.5143		152.2857		203.5		206.3571		201.2778		197.2222		251.5556		160.0816		182.5625		222.8455		188.3016		174.6944		137.675		210.8889		179.9722		238.2		168.5833		136.6857		
108	1217295		240.3571		239.5556		196.25		199.8214		153.8		151.2		199.0333		202.2143		195.8704		193.7037		245.4603		157.0204		180.1875		219.8364		185.3333		173.4444		135.175		206.3611		177.6944		230.6		166.5625		135.0857		
109	1227296		239.25		236.9444		193.125		199.2679		151.8571		150.4571		198.5333		201.1667		196.8889		192.287		244.8571		156.8367		179.8281		217.2273		183.3968		171.5278		136.6083		204.2361		174.7222		228.75		165.0417		132.3714		
110	1237294		239.6786		236.3611		193.2292		202.4107		152.0857		151.4286		199.2		201.3095		195.1296		193.1852		246.2222		158.3265		180.3281		218.9091		184.4603		172.3333		136.7833		206.8056		176.5556		229.6		165.3542		133.5714		
111	1247295		241.5893		237.2222		194.1875		203.0		153.9714		149.6572		198.0		203.2619		198.1481		192.2037		246.7143		158.6122		182.8281		219.3		185.6508		171.6806		136.6417		206.875		175.6111		228.325		168.0		133.1714		
112	1257295		241.5536		236.3056		195.6458		201.5893		153.0		150.3714		200.6333		200.8333		197.2593		193.1296		245.7143		156.0204		180.8594		220.2273		186.0159		173.4444		136.5917		207.5694		176.4167		228.0		165.6042		135.0		
